VALMIR_at_2x10CON_[V]	Vdiff_at_ADS1256_[V]	R2_[Ohm]	Temp_[Â°C]
0.000	0.000	inf	-nan
0.004	0.005	665665.000	-nan
0.008	0.010	332332.500	-nan
0.011	0.015	221221.667	-nan
0.015	0.020	165666.250	-nan
0.019	0.025	132333.000	-nan
0.023	0.030	110110.833	-nan
0.026	0.035	94237.857	-nan
0.030	0.040	82333.125	-nan
0.034	0.045	73073.889	-nan
0.038	0.050	65666.500	-nan
0.041	0.055	59605.909	-nan
0.045	0.060	54555.417	-nan
0.049	0.065	50281.923	-nan
0.053	0.070	46618.929	-nan
0.056	0.075	43444.333	-nan
0.060	0.080	40666.562	-nan
0.064	0.085	38215.588	-nan
0.068	0.090	36036.944	-nan
0.071	0.095	34087.632	-nan
0.075	0.100	32333.250	-nan
0.079	0.105	30745.952	-nan
0.083	0.110	29302.955	-nan
0.086	0.115	27985.435	-nan
0.090	0.120	26777.708	-nan
0.094	0.125	25666.600	-nan
0.098	0.130	24640.962	-nan
0.101	0.135	23691.296	-nan
0.105	0.140	22809.464	-nan
0.109	0.145	21988.448	-nan
0.113	0.150	21222.167	-nan
0.116	0.155	20505.323	-nan
0.120	0.160	19833.281	-nan
0.124	0.165	19201.970	-nan
0.128	0.170	18607.794	-nan
0.131	0.175	18047.571	-nan
0.135	0.180	17518.472	-nan
0.139	0.185	17017.973	-nan
0.143	0.190	16543.816	-nan
0.146	0.195	16093.974	-nan
0.150	0.200	15666.625	-nan
0.154	0.205	15260.122	-nan
0.158	0.210	14872.976	-nan
0.161	0.215	14503.837	-nan
0.165	0.220	14151.477	-nan
0.169	0.225	13814.778	-nan
0.173	0.230	13492.717	-nan
0.176	0.235	13184.362	-nan
0.180	0.240	12888.854	-nan
0.184	0.245	12605.408	-nan
0.188	0.250	12333.300	-nan
0.191	0.255	12071.863	-nan
0.195	0.260	11820.481	-nan
0.199	0.265	11578.585	-nan
0.203	0.270	11345.648	-nan
0.206	0.275	11121.182	-nan
0.210	0.280	10904.732	-nan
0.214	0.285	10695.877	-nan
0.218	0.290	10494.224	-nan
0.221	0.295	10299.407	-nan
0.225	0.300	10111.083	-nan
0.229	0.305	9928.934	-nan
0.233	0.310	9752.661	-nan
0.236	0.315	9581.984	-nan
0.240	0.320	9416.641	-nan
0.244	0.325	9256.385	-nan
0.248	0.330	9100.985	-nan
0.251	0.335	8950.224	-nan
0.255	0.340	8803.897	-nan
0.259	0.345	8661.812	-nan
0.263	0.350	8523.786	-nan
0.266	0.355	8389.648	-nan
0.270	0.360	8259.236	-nan
0.274	0.365	8132.397	-nan
0.278	0.370	8008.986	-nan
0.281	0.375	7888.867	-nan
0.285	0.380	7771.908	-nan
0.289	0.385	7657.987	-nan
0.293	0.390	7546.987	3720.548
0.296	0.395	7438.797	3932.202
0.300	0.400	7333.312	4079.074
0.304	0.405	7230.432	4197.161
0.308	0.410	7130.061	4297.780
0.311	0.415	7032.108	4386.285
0.315	0.420	6936.488	4465.722
0.319	0.425	6843.118	4538.025
0.323	0.430	6751.919	4604.520
0.326	0.435	6662.816	4666.161
0.330	0.440	6575.739	4723.663
0.334	0.445	6490.618	4777.583
0.338	0.450	6407.389	4828.359
0.341	0.455	6325.989	4876.349
0.345	0.460	6246.359	4921.848
0.349	0.465	6168.441	4965.102
0.353	0.470	6092.181	5006.319
0.356	0.475	6017.526	5045.679
0.360	0.480	5944.427	5083.335
0.364	0.485	5872.835	5119.424
0.368	0.490	5802.704	5154.063
0.371	0.495	5733.990	5187.357
0.375	0.500	5666.650	5219.399
0.379	0.505	5600.644	5250.273
0.383	0.510	5535.931	5280.053
0.386	0.515	5472.476	5308.808
0.390	0.520	5410.240	5336.599
0.394	0.525	5349.190	5363.482
0.398	0.530	5289.292	5389.507
0.401	0.535	5230.514	5414.721
0.405	0.540	5172.824	5439.168
0.409	0.545	5116.193	5462.886
0.413	0.550	5060.591	5485.913
0.416	0.555	5005.991	5508.283
0.420	0.560	4952.366	5530.025
0.424	0.565	4899.690	5551.171
0.428	0.570	4847.939	5571.747
0.431	0.575	4797.087	5591.778
0.435	0.580	4747.112	5611.288
0.439	0.585	4697.991	5630.300
0.443	0.590	4649.703	5648.834
0.446	0.595	4602.227	5666.909
0.450	0.600	4555.542	5684.545
0.454	0.605	4509.628	5701.759
0.458	0.610	4464.467	5718.566
0.461	0.615	4420.041	5734.983
0.465	0.620	4376.331	5751.025
0.469	0.625	4333.320	5766.704
0.473	0.630	4290.992	5782.034
0.476	0.635	4249.331	5797.027
0.480	0.640	4208.320	5811.696
0.484	0.645	4167.946	5826.052
0.488	0.650	4128.192	5840.104
0.491	0.655	4089.046	5853.864
0.495	0.660	4050.492	5867.341
0.499	0.665	4012.519	5880.544
0.503	0.670	3975.112	5893.482
0.506	0.675	3938.259	5906.164
0.510	0.680	3901.949	5918.597
0.514	0.685	3866.168	5930.789
0.518	0.690	3830.906	5942.748
0.521	0.695	3796.151	5954.480
0.525	0.700	3761.893	5965.992
0.529	0.705	3728.121	5977.291
0.533	0.710	3694.824	5988.383
0.536	0.715	3661.993	5999.274
0.540	0.720	3629.618	6009.969
0.544	0.725	3597.690	6020.475
0.548	0.730	3566.199	6030.795
0.551	0.735	3535.136	6040.936
0.555	0.740	3504.493	6050.902
0.559	0.745	3474.262	6060.698
0.563	0.750	3444.433	6070.328
0.566	0.755	3415.000	6079.797
0.570	0.760	3385.954	6089.109
0.574	0.765	3357.288	6098.268
0.578	0.770	3328.994	6107.277
0.581	0.775	3301.065	6116.142
0.585	0.780	3273.494	6124.864
0.589	0.785	3246.274	6133.449
0.593	0.790	3219.399	6141.898
0.596	0.795	3192.862	6150.216
0.600	0.800	3166.656	6158.405
0.604	0.805	3140.776	6166.469
0.608	0.810	3115.216	6174.411
0.611	0.815	3089.969	6182.233
0.615	0.820	3065.030	6189.938
0.619	0.825	3040.394	6197.529
0.623	0.830	3016.054	6205.009
0.626	0.835	2992.006	6212.379
0.630	0.840	2968.244	6219.643
0.634	0.845	2944.763	6226.803
0.638	0.850	2921.559	6233.861
0.641	0.855	2898.626	6240.819
0.645	0.860	2875.959	6247.680
0.649	0.865	2853.555	6254.445
0.653	0.870	2831.408	6261.117
0.656	0.875	2809.514	6267.697
0.660	0.880	2787.869	6274.188
0.664	0.885	2766.469	6280.592
0.668	0.890	2745.309	6286.909
0.671	0.895	2724.385	6293.142
0.675	0.900	2703.694	6299.293
0.679	0.905	2683.232	6305.364
0.683	0.910	2662.995	6311.355
0.686	0.915	2642.978	6317.269
0.690	0.920	2623.179	6323.107
0.694	0.925	2603.595	6328.870
0.698	0.930	2584.220	6334.560
0.701	0.935	2565.053	6340.179
0.705	0.940	2546.090	6345.727
0.709	0.945	2527.328	6351.206
0.713	0.950	2508.763	6356.618
0.716	0.955	2490.393	6361.963
0.720	0.960	2472.214	6367.244
0.724	0.965	2454.223	6372.460
0.728	0.970	2436.418	6377.614
0.731	0.975	2418.795	6382.706
0.735	0.980	2401.352	6387.737
0.739	0.985	2384.086	6392.710
0.743	0.990	2366.995	6397.624
0.746	0.995	2350.075	6402.480
0.750	1.000	2333.325	6407.281
0.754	1.005	2316.741	6412.026
0.758	1.010	2300.322	6416.717
0.761	1.015	2284.064	6421.354
0.765	1.020	2267.966	6425.940
0.769	1.025	2252.024	6430.473
0.773	1.030	2236.238	6434.956
0.776	1.035	2220.604	6439.389
0.780	1.040	2205.120	6443.773
0.784	1.045	2189.785	6448.109
0.788	1.050	2174.595	6452.398
0.791	1.055	2159.550	6456.640
0.795	1.060	2144.646	6460.837
0.799	1.065	2129.883	6464.988
0.803	1.070	2115.257	6469.095
0.806	1.075	2100.767	6473.158
0.810	1.080	2086.412	6477.179
0.814	1.085	2072.189	6481.157
0.818	1.090	2058.096	6485.094
0.821	1.095	2044.132	6488.990
0.825	1.100	2030.295	6492.846
0.829	1.105	2016.584	6496.662
0.833	1.110	2002.995	6500.439
0.836	1.115	1989.529	6504.178
0.840	1.120	1976.183	6507.878
0.844	1.125	1962.956	6511.542
0.848	1.130	1949.845	6515.169
0.851	1.135	1936.850	6518.760
0.855	1.140	1923.969	6522.316
0.859	1.145	1911.201	6525.836
0.863	1.150	1898.543	6529.322
0.866	1.155	1885.996	6532.774
0.870	1.160	1873.556	6536.192
0.874	1.165	1861.223	6539.577
0.878	1.170	1848.996	6542.930
0.881	1.175	1836.872	6546.251
0.885	1.180	1824.852	6549.540
0.889	1.185	1812.932	6552.799
0.893	1.190	1801.113	6556.026
0.896	1.195	1789.393	6559.223
0.900	1.200	1777.771	6562.391
0.904	1.205	1766.245	6565.529
0.908	1.210	1754.814	198.981
0.911	1.215	1743.477	195.901
0.915	1.220	1732.234	192.849
0.919	1.225	1721.082	189.824
0.923	1.230	1710.020	186.827
0.926	1.235	1699.049	183.857
0.930	1.240	1688.165	180.914
0.934	1.245	1677.369	177.997
0.938	1.250	1666.660	175.106
0.941	1.255	1656.036	172.241
0.945	1.260	1645.496	169.401
0.949	1.265	1635.040	166.585
0.953	1.270	1624.665	163.795
0.956	1.275	1614.373	161.028
0.960	1.280	1604.160	158.286
0.964	1.285	1594.027	155.567
0.968	1.290	1583.973	152.872
0.971	1.295	1573.996	150.199
0.975	1.300	1564.096	147.550
0.979	1.305	1554.272	144.923
0.983	1.310	1544.523	142.318
0.986	1.315	1534.848	139.734
0.990	1.320	1525.246	137.173
0.994	1.325	1515.717	134.633
0.998	1.330	1506.259	132.113
1.001	1.335	1496.873	129.615
1.005	1.340	1487.556	127.137
1.009	1.345	1478.309	124.680
1.013	1.350	1469.130	122.242
1.016	1.355	1460.018	119.825
1.020	1.360	1450.974	117.426
1.024	1.365	1441.996	115.047
1.028	1.370	1433.084	112.688
1.031	1.375	1424.236	110.347
1.035	1.380	1415.453	108.024
1.039	1.385	1406.733	105.721
1.043	1.390	1398.076	103.435
1.046	1.395	1389.480	101.167
1.050	1.400	1380.946	98.917
1.054	1.405	1372.473	96.684
1.058	1.410	1364.060	94.469
1.061	1.415	1355.707	92.271
1.065	1.420	1347.412	90.090
1.069	1.425	1339.175	87.926
1.073	1.430	1330.997	85.778
1.076	1.435	1322.875	83.646
1.080	1.440	1314.809	81.531
1.084	1.445	1306.799	79.432
1.088	1.450	1298.845	77.348
1.091	1.455	1290.945	75.280
1.095	1.460	1283.099	73.228
1.099	1.465	1275.307	71.191
1.103	1.470	1267.568	69.168
1.106	1.475	1259.881	67.161
1.110	1.480	1252.247	65.169
1.114	1.485	1244.663	63.191
1.118	1.490	1237.131	61.228
1.121	1.495	1229.649	59.278
1.125	1.500	1222.217	57.344
1.129	1.505	1214.834	55.423
1.133	1.510	1207.500	53.515
1.136	1.515	1200.215	51.622
1.140	1.520	1192.977	49.742
1.144	1.525	1185.787	47.875
1.148	1.530	1178.644	46.022
1.151	1.535	1171.547	44.181
1.155	1.540	1164.497	42.354
1.159	1.545	1157.492	40.540
1.163	1.550	1150.532	38.738
1.166	1.555	1143.617	36.948
1.170	1.560	1136.747	35.172
1.174	1.565	1129.920	33.407
1.178	1.570	1123.137	31.655
1.181	1.575	1116.397	29.914
1.185	1.580	1109.699	28.186
1.189	1.585	1103.044	26.469
1.193	1.590	1096.431	24.764
1.196	1.595	1089.859	23.070
1.200	1.600	1083.328	21.388
1.204	1.605	1076.838	19.718
1.208	1.610	1070.388	18.058
1.211	1.615	1063.978	16.410
1.215	1.620	1057.608	14.772
1.219	1.625	1051.277	13.146
1.223	1.630	1044.985	11.530
1.226	1.635	1038.731	9.924
1.230	1.640	1032.515	8.330
1.234	1.645	1026.337	6.746
1.238	1.650	1020.197	5.172
1.241	1.655	1014.094	3.608
1.245	1.660	1008.027	2.054
1.249	1.665	1001.997	0.511
1.253	1.670	996.003	-1.023
1.256	1.675	990.045	-2.546
1.260	1.680	984.122	-4.060
1.264	1.685	978.234	-5.564
1.268	1.690	972.382	-7.059
1.271	1.695	966.563	-8.544
1.275	1.700	960.779	-10.020
1.279	1.705	955.029	-11.487
1.283	1.710	949.313	-12.944
1.286	1.715	943.630	-14.393
1.290	1.720	937.980	-15.832
1.294	1.725	932.362	-17.262
1.298	1.730	926.777	-18.684
1.301	1.735	921.225	-20.096
1.305	1.740	915.704	-21.500
1.309	1.745	910.215	-22.895
1.313	1.750	904.757	-24.282
1.316	1.755	899.330	-25.661
1.320	1.760	893.935	-27.031
1.324	1.765	888.569	-28.392
1.328	1.770	883.234	-29.746
1.331	1.775	877.930	-31.091
1.335	1.780	872.654	-32.428
1.339	1.785	867.409	-33.757
1.343	1.790	862.193	-35.078
1.346	1.795	857.006	-36.392
1.350	1.800	851.847	-37.697
1.354	1.805	846.717	-38.995
1.358	1.810	841.616	-40.285
1.361	1.815	836.543	-41.568
1.365	1.820	831.497	-42.843
1.369	1.825	826.479	-44.110
1.373	1.830	821.489	-45.371
1.376	1.835	816.526	-46.624
1.380	1.840	811.590	-47.869
1.384	1.845	806.680	-49.108
1.388	1.850	801.797	-50.339
1.391	1.855	796.941	-51.563
1.395	1.860	792.110	-52.780
1.399	1.865	787.306	-53.990
1.403	1.870	782.527	-55.194
1.406	1.875	777.773	-56.390
1.410	1.880	773.045	-57.580
1.414	1.885	768.342	-58.763
1.418	1.890	763.664	-59.939
1.421	1.895	759.011	-61.109
1.425	1.900	754.382	-62.272
1.429	1.905	749.777	-63.429
1.433	1.910	745.196	-64.579
1.436	1.915	740.640	-65.723
1.440	1.920	736.107	-66.861
1.444	1.925	731.597	-67.992
1.448	1.930	727.111	-69.117
1.451	1.935	722.649	-70.236
1.455	1.940	718.209	-71.349
1.459	1.945	713.792	-72.455
1.463	1.950	709.397	-73.556
1.466	1.955	705.026	-74.650
1.470	1.960	700.676	-75.739
1.474	1.965	696.349	-76.822
1.478	1.970	692.043	-77.899
1.481	1.975	687.759	-78.970
1.485	1.980	683.497	-80.036
1.489	1.985	679.257	-81.095
1.493	1.990	675.038	-82.150
1.496	1.995	670.840	-83.198
1.500	2.000	666.663	-84.241
1.504	2.005	662.506	-85.278
1.508	2.010	658.371	-86.310
1.511	2.015	654.256	-87.337
1.515	2.020	650.161	-88.358
1.519	2.025	646.086	-89.374
1.523	2.030	642.032	-90.385
1.526	2.035	637.998	-91.390
1.530	2.040	633.983	-92.390
1.534	2.045	629.988	-93.385
1.538	2.050	626.012	-94.375
1.541	2.055	622.056	-95.359
1.545	2.060	618.119	-96.339
1.549	2.065	614.201	-97.313
1.553	2.070	610.302	-98.283
1.556	2.075	606.422	-99.248
1.560	2.080	602.560	-100.207
1.564	2.085	598.717	-101.162
1.568	2.090	594.892	-102.112
1.571	2.095	591.086	-103.058
1.575	2.100	587.298	-103.998
1.579	2.105	583.527	-104.934
1.583	2.110	579.775	-105.865
1.586	2.115	576.040	-106.792
1.590	2.120	572.323	-107.713
1.594	2.125	568.624	-108.631
1.598	2.130	564.941	-109.543
1.601	2.135	561.276	-110.452
1.605	2.140	557.629	-111.355
1.609	2.145	553.998	-112.255
1.613	2.150	550.384	-113.150
1.616	2.155	546.787	-114.040
1.620	2.160	543.206	-114.926
1.624	2.165	539.642	-115.808
1.628	2.170	536.094	-116.686
1.631	2.175	532.563	-117.559
1.635	2.180	529.048	-118.428
1.639	2.185	525.549	-119.293
1.643	2.190	522.066	-120.154
1.646	2.195	518.599	-121.010
1.650	2.200	515.148	-121.863
1.654	2.205	511.712	-122.711
1.658	2.210	508.292	-123.556
1.661	2.215	504.887	-124.396
1.665	2.220	501.498	-125.232
1.669	2.225	498.124	-126.065
1.673	2.230	494.765	-126.893
1.676	2.235	491.421	-127.718
1.680	2.240	488.092	-128.538
1.684	2.245	484.777	-129.355
1.688	2.250	481.478	-130.168
1.691	2.255	478.193	-130.978
1.695	2.260	474.923	-131.783
1.699	2.265	471.667	-132.585
1.703	2.270	468.425	-133.383
1.706	2.275	465.198	-134.177
1.710	2.280	461.985	-134.968
1.714	2.285	458.786	-135.755
1.718	2.290	455.600	-136.538
1.721	2.295	452.429	-137.318
1.725	2.300	449.272	-138.095
1.729	2.305	446.128	-138.867
1.733	2.310	442.998	-139.637
1.736	2.315	439.881	-140.402
1.740	2.320	436.778	-141.165
1.744	2.325	433.688	-141.924
1.748	2.330	430.612	-142.679
1.751	2.335	427.548	-143.431
1.755	2.340	424.498	-144.180
1.759	2.345	421.461	-144.925
1.763	2.350	418.436	-145.667
1.766	2.355	415.425	-146.406
1.770	2.360	412.426	-147.141
1.774	2.365	409.440	-147.873
1.778	2.370	406.466	-148.602
1.781	2.375	403.505	-149.328
1.785	2.380	400.557	-150.050
1.789	2.385	397.621	-150.769
1.793	2.390	394.697	-151.486
1.796	2.395	391.785	-152.199
1.800	2.400	388.885	-152.908
1.804	2.405	385.998	-153.615
1.808	2.410	383.122	-154.319
1.811	2.415	380.259	-155.020
1.815	2.420	377.407	-155.717
1.819	2.425	374.567	-156.412
1.823	2.430	371.739	-157.104
1.826	2.435	368.922	-157.792
1.830	2.440	366.117	-158.478
1.834	2.445	363.323	-159.161
1.838	2.450	360.541	-159.841
1.841	2.455	357.770	-160.517
1.845	2.460	355.010	-161.192
1.849	2.465	352.262	-161.863
1.853	2.470	349.524	-162.531
1.856	2.475	346.798	-163.197
1.860	2.480	344.083	-163.859
1.864	2.485	341.378	-164.519
1.868	2.490	338.685	-165.176
1.871	2.495	336.002	-165.831
